# This is the observed solar spectra by BASS2000 project from 10530 - 10630 A in a resolution of 0.1 A
10530.0032 9827
10530.1052 9861
10530.2072 9877
10530.3093 9851
10530.4113 9510
10530.5134 8422
10530.6154 9066
10530.7175 9769
10530.8195 9871
10530.9216 9894
10531.0236 9901
10531.1257 9858
10531.2278 9856
10531.3298 9849
10531.4319 9905
10531.534 9898
10531.636 9907
10531.7381 9902
10531.8402 9887
10531.9422 9893
10532.0443 9828
10532.1464 8929
10532.2485 6234
10532.3506 8436
10532.4527 9698
10532.5547 9871
10532.6568 9887
10532.7589 9896
10532.861 9885
10532.9631 9828
10533.0652 9857
10533.1673 9892
10533.2694 9898
10533.3715 9900
10533.4736 9896
10533.5757 9887
10533.6778 9896
10533.7799 9897
10533.8821 9841
10533.9842 9832
10534.0863 9879
10534.1884 9836
10534.2905 9862
10534.3926 9872
10534.4948 9870
10534.5969 9897
10534.699 9903
10534.8012 9909
10534.9033 9906
10535.0054 9901
10535.1076 9890
10535.2097 9879
10535.3118 9866
10535.414 9835
10535.5161 9714
10535.6183 9226
10535.7204 8566
10535.8226 9407
10535.9247 9736
10536.0269 9758
10536.129 9810
10536.2312 9866
10536.3334 9875
10536.4355 9892
10536.5377 9898
10536.6398 9898
10536.742 9913
10536.8442 9911
10536.9464 9901
10537.0485 9892
10537.1507 9906
10537.2529 9914
10537.3551 9919
10537.4573 9916
10537.5594 9910
10537.6616 9905
10537.7638 9897
10537.866 9902
10537.9682 9912
10538.0704 9897
10538.1726 9851
10538.2748 9876
10538.377 9899
10538.4792 9910
10538.5814 9924
10538.6836 9917
10538.7858 9916
10538.888 9907
10538.9902 9910
10539.0924 9913
10539.1947 9920
10539.2969 9909
10539.3991 9874
10539.5013 9811
10539.6035 9812
10539.7058 9833
10539.808 9874
10539.9102 9879
10540.0125 9876
10540.1147 9894
10540.2169 9898
10540.3192 9905
10540.4214 9911
10540.5236 9904
10540.6259 9892
10540.7281 9872
10540.8304 9871
10540.9326 9849
10541.0349 9746
10541.1371 9448
10541.2394 9252
10541.3416 9420
10541.4439 9651
10541.5462 9674
10541.6484 9746
10541.7507 9709
10541.853 9776
10541.9552 9765
10542.0575 9780
10542.1598 9844
10542.2621 9842
10542.3643 9800
10542.4666 9708
10542.5689 9665
10542.6712 9755
10542.7735 9865
10542.8757 9886
10542.978 9858
10543.0803 9811
10543.1826 9847
10543.2849 9848
10543.3872 9831
10543.4895 9880
10543.5918 9854
10543.6941 9817
10543.7964 9889
10543.8987 9902
10544.001 9905
10544.1034 9914
10544.2057 9921
10544.308 9917
10544.4103 9909
10544.5126 9908
10544.6149 9916
10544.7173 9912
10544.8196 9913
10544.9219 9904
10545.0242 9881
10545.1266 9892
10545.2289 9906
10545.3312 9909
10545.4336 9911
10545.5359 9914
10545.6383 9902
10545.7406 9903
10545.8429 9897
10545.9453 9902
10546.0476 9904
10546.15 9869
10546.2523 9818
10546.3547 9585
10546.4571 9675
10546.5594 9836
10546.6618 9888
10546.7641 9899
10546.8665 9895
10546.9689 9896
10547.0712 9904
10547.1736 9910
10547.276 9911
10547.3784 9909
10547.4807 9891
10547.5831 9881
10547.6855 9901
10547.7879 9917
10547.8903 9921
10547.9926 9919
10548.095 9914
10548.1974 9906
10548.2998 9905
10548.4022 9914
10548.5046 9913
10548.607 9910
10548.7094 9903
10548.8118 9911
10548.9142 9910
10549.0166 9914
10549.119 9919
10549.2214 9916
10549.3239 9910
10549.4263 9888
10549.5287 9778
10549.6311 9819
10549.7335 9896
10549.8359 9909
10549.9384 9901
10550.0408 9876
10550.1432 9854
10550.2457 9910
10550.3481 9920
10550.4505 9912
10550.553 9899
10550.6554 9902
10550.7578 9903
10550.8603 9901
10550.9627 9893
10551.0652 9898
10551.1676 9903
10551.2701 9899
10551.3725 9905
10551.475 9911
10551.5774 9918
10551.6799 9911
10551.7824 9882
10551.8848 9892
10551.9873 9884
10552.0897 9835
10552.1922 9861
10552.2947 9889
10552.3972 9887
10552.4996 9871
10552.6021 9859
10552.7046 9860
10552.8071 9882
10552.9095 9846
10553.012 9749
10553.1145 9848
10553.217 9881
10553.3195 9893
10553.422 9905
10553.5245 9907
10553.627 9899
10553.7295 9905
10553.832 9898
10553.9345 9901
10554.037 9912
10554.1395 9906
10554.242 9894
10554.3445 9877
10554.447 9873
10554.5495 9861
10554.652 9883
10554.7546 9869
10554.8571 9785
10554.9596 9524
10555.0621 9685
10555.1647 9821
10555.2672 9854
10555.3697 9873
10555.4722 9859
10555.5748 9627
10555.6773 9176
10555.7799 9675
10555.8824 9862
10555.9849 9887
10556.0875 9888
10556.19 9880
10556.2926 9874
10556.3951 9828
10556.4977 9835
10556.6002 9869
10556.7028 9878
10556.8053 9890
10556.9079 9885
10557.0105 9885
10557.113 9896
10557.2156 9899
10557.3182 9888
10557.4207 9822
10557.5233 9603
10557.6259 9748
10557.7285 9858
10557.831 9875
10557.9336 9855
10558.0362 9824
10558.1388 9777
10558.2414 9655
10558.344 9483
10558.4465 9687
10558.5491 9819
10558.6517 9853
10558.7543 9841
10558.8569 9791
10558.9595 9841
10559.0621 9869
10559.1647 9881
10559.2673 9888
10559.3699 9871
10559.4725 9858
10559.5752 9883
10559.6778 9900
10559.7804 9903
10559.883 9897
10559.9856 9879
10560.0882 9888
10560.1909 9894
10560.2935 9904
10560.3961 9906
10560.4988 9899
10560.6014 9883
10560.704 9881
10560.8067 9888
10560.9093 9854
10561.0119 9878
10561.1146 9897
10561.2172 9893
10561.3199 9893
10561.4225 9901
10561.5252 9902
10561.6278 9901
10561.7305 9895
10561.8331 9890
10561.9358 9890
10562.0384 9898
10562.1411 9908
10562.2438 9907
10562.3464 9900
10562.4491 9892
10562.5518 9884
10562.6544 9897
10562.7571 9905
10562.8598 9900
10562.9625 9892
10563.0651 9864
10563.1678 9828
10563.2705 9800
10563.3732 9857
10563.4759 9881
10563.5786 9883
10563.6813 9864
10563.784 9862
10563.8867 9889
10563.9893 9892
10564.092 9897
10564.1947 9895
10564.2975 9890
10564.4002 9893
10564.5029 9897
10564.6056 9902
10564.7083 9904
10564.811 9892
10564.9137 9857
10565.0164 9811
10565.1192 9879
10565.2219 9894
10565.3246 9869
10565.4273 9849
10565.53 9883
10565.6328 9887
10565.7355 9877
10565.8382 9879
10565.941 9848
10566.0437 9848
10566.1465 9867
10566.2492 9879
10566.3519 9889
10566.4547 9897
10566.5574 9901
10566.6602 9897
10566.7629 9891
10566.8657 9864
10566.9684 9872
10567.0712 9893
10567.174 9895
10567.2767 9888
10567.3795 9882
10567.4823 9885
10567.585 9865
10567.6878 9825
10567.7906 9883
10567.8933 9883
10567.9961 9868
10568.0989 9798
10568.2017 9769
10568.3044 9863
10568.4072 9891
10568.51 9898
10568.6128 9888
10568.7156 9875
10568.8184 9847
10568.9212 9866
10569.024 9896
10569.1268 9897
10569.2296 9895
10569.3324 9888
10569.4352 9893
10569.538 9901
10569.6408 9866
10569.7436 9830
10569.8464 9879
10569.9492 9885
10570.052 9886
10570.1549 9897
10570.2577 9901
10570.3605 9895
10570.4633 9891
10570.5661 9886
10570.669 9885
10570.7718 9894
10570.8746 9904
10570.9775 9899
10571.0803 9891
10571.1831 9882
10571.286 9808
10571.3888 9812
10571.4917 9836
10571.5945 9868
10571.6974 9894
10571.8002 9888
10571.9031 9887
10572.0059 9885
10572.1088 9886
10572.2116 9835
10572.3145 9815
10572.4173 9841
10572.5202 9858
10572.6231 9870
10572.7259 9875
10572.8288 9884
10572.9317 9875
10573.0346 9869
10573.1374 9867
10573.2403 9870
10573.3432 9880
10573.4461 9872
10573.5489 9840
10573.6518 9808
10573.7547 9825
10573.8576 9849
10573.9605 9842
10574.0634 9816
10574.1663 9834
10574.2692 9839
10574.3721 9860
10574.475 9870
10574.5779 9875
10574.6808 9876
10574.7837 9865
10574.8866 9821
10574.9895 9697
10575.0924 9774
10575.1954 9856
10575.2983 9871
10575.4012 9875
10575.5041 9872
10575.607 9867
10575.71 9858
10575.8129 9853
10575.9158 9841
10576.0188 9851
10576.1217 9864
10576.2246 9872
10576.3276 9872
10576.4305 9885
10576.5334 9891
10576.6364 9878
10576.7393 9863
10576.8423 9872
10576.9452 9873
10577.0482 9722
10577.1511 8757
10577.2541 9512
10577.357 9825
10577.46 9876
10577.563 9856
10577.6659 9874
10577.7689 9872
10577.8719 9882
10577.9748 9861
10578.0778 9875
10578.1808 9881
10578.2837 9876
10578.3867 9864
10578.4897 9859
10578.5927 9860
10578.6957 9846
10578.7987 9856
10578.9016 9859
10579.0046 9868
10579.1076 9873
10579.2106 9864
10579.3136 9826
10579.4166 9780
10579.5196 9852
10579.6226 9854
10579.7256 9821
10579.8286 9830
10579.9316 9831
10580.0346 9819
10580.1377 9793
10580.2407 9774
10580.3437 9831
10580.4467 9774
10580.5497 9750
10580.6527 9795
10580.7558 9813
10580.8588 9835
10580.9618 9843
10581.0648 9824
10581.1679 9830
10581.2709 9805
10581.3739 9680
10581.477 9358
10581.58 8808
10581.6831 9235
10581.7861 9642
10581.8892 9685
10581.9922 9507
10582.0953 8829
10582.1983 8278
10582.3014 9166
10582.4044 9620
10582.5075 9736
10582.6105 9777
10582.7136 9762
10582.8167 9785
10582.9197 9786
10583.0228 9784
10583.1259 9783
10583.2289 9772
10583.332 9766
10583.4351 9752
10583.5382 9734
10583.6412 9705
10583.7443 9665
10583.8474 9600
10583.9505 9430
10584.0536 9364
10584.1567 9419
10584.2598 9401
10584.3629 9324
10584.466 9183
10584.5691 8697
10584.6722 7812
10584.7753 8092
10584.8784 7531
10584.9815 6522
10585.0846 4463
10585.1877 3451
10585.2908 5412
10585.3939 7135
10585.497 7968
10585.6001 8516
10585.7033 8860
10585.8064 9101
10585.9095 9293
10586.0126 9410
10586.1158 9504
10586.2189 9565
10586.322 9625
10586.4252 9654
10586.5283 9673
10586.6314 9665
10586.7346 9690
10586.8377 9742
10586.9409 9767
10587.044 9739
10587.1472 9708
10587.2503 9789
10587.3535 9801
10587.4566 9807
10587.5598 9816
10587.6629 9799
10587.7661 9831
10587.8692 9839
10587.9724 9835
10588.0756 9831
10588.1787 9834
10588.2819 9845
10588.3851 9850
10588.4883 9837
10588.5914 9842
10588.6946 9843
10588.7978 9849
10588.901 9861
10589.0042 9861
10589.1074 9860
10589.2105 9854
10589.3137 9857
10589.4169 9859
10589.5201 9867
10589.6233 9861
10589.7265 9866
10589.8297 9859
10589.9329 9849
10590.0361 9820
10590.1393 9737
10590.2425 9820
10590.3457 9852
10590.449 9856
10590.5522 9849
10590.6554 9846
10590.7586 9871
10590.8618 9874
10590.9651 9862
10591.0683 9843
10591.1715 9849
10591.2747 9853
10591.378 9848
10591.4812 9797
10591.5844 9803
10591.6877 9840
10591.7909 9851
10591.8941 9856
10591.9974 9862
10592.1006 9875
10592.2039 9873
10592.3071 9865
10592.4104 9842
10592.5136 9814
10592.6169 9854
10592.7201 9877
10592.8234 9876
10592.9267 9860
10593.0299 9809
10593.1332 9854
10593.2365 9864
10593.3397 9878
10593.443 9883
10593.5463 9860
10593.6495 9844
10593.7528 9862
10593.8561 9874
10593.9594 9880
10594.0627 9864
10594.166 9814
10594.2692 9829
10594.3725 9857
10594.4758 9874
10594.5791 9883
10594.6824 9879
10594.7857 9871
10594.889 9862
10594.9923 9864
10595.0956 9873
10595.1989 9870
10595.3022 9857
10595.4055 9866
10595.5088 9871
10595.6122 9871
10595.7155 9877
10595.8188 9878
10595.9221 9877
10596.0254 9873
10596.1287 9862
10596.2321 9850
10596.3354 9849
10596.4387 9868
10596.5421 9867
10596.6454 9858
10596.7487 9814
10596.8521 9603
10596.9554 9570
10597.0587 9771
10597.1621 9848
10597.2654 9862
10597.3688 9863
10597.4721 9857
10597.5755 9864
10597.6788 9878
10597.7822 9875
10597.8856 9867
10597.9889 9856
10598.0923 9844
10598.1956 9847
10598.299 9861
10598.4024 9861
10598.5057 9860
10598.6091 9854
10598.7125 9851
10598.8159 9863
10598.9192 9847
10599.0226 9870
10599.126 9866
10599.2294 9857
10599.3328 9855
10599.4362 9852
10599.5395 9859
10599.6429 9867
10599.7463 9866
10599.8497 9849
10599.9531 9815
10600.0565 9806
10600.1599 9844
10600.2633 9859
10600.3667 9851
10600.4701 9842
10600.5736 9835
10600.677 9844
10600.7804 9843
10600.8838 9841
10600.9872 9838
10601.0906 9812
10601.1941 9765
10601.2975 9713
10601.4009 9742
10601.5043 9798
10601.6078 9814
10601.7112 9788
10601.8146 9751
10601.9181 9789
10602.0215 9767
10602.125 9757
10602.2284 9749
10602.3318 9711
10602.4353 9641
10602.5387 9600
10602.6422 9530
10602.7456 9265
10602.8491 8984
10602.9525 9072
10603.056 8836
10603.1595 8256
10603.2629 7157
10603.3664 5068
10603.4699 3930
10603.5733 5841
10603.6768 7745
10603.7803 8588
10603.8837 9038
10603.9872 9254
10604.0907 9452
10604.1942 9564
10604.2977 9636
10604.4011 9683
10604.5046 9730
10604.6081 9759
10604.7116 9775
10604.8151 9785
10604.9186 9790
10605.0221 9794
10605.1256 9745
10605.2291 9759
10605.3326 9823
10605.4361 9814
10605.5396 9813
10605.6431 9833
10605.7466 9841
10605.8501 9848
10605.9537 9852
10606.0572 9839
10606.1607 9844
10606.2642 9846
10606.3677 9854
10606.4713 9863
10606.5748 9860
10606.6783 9853
10606.7819 9858
10606.8854 9858
10606.9889 9863
10607.0925 9872
10607.196 9873
10607.2995 9866
10607.4031 9864
10607.5066 9864
10607.6102 9859
10607.7137 9774
10607.8173 9819
10607.9208 9863
10608.0244 9864
10608.1279 9858
10608.2315 9840
10608.3351 9854
10608.4386 9823
10608.5422 9854
10608.6458 9863
10608.7493 9858
10608.8529 9865
10608.9565 9862
10609.06 9863
10609.1636 9871
10609.2672 9864
10609.3708 9811
10609.4744 9802
10609.578 9866
10609.6815 9863
10609.7851 9846
10609.8887 9851
10609.9923 9857
10610.0959 9863
10610.1995 9870
10610.3031 9874
10610.4067 9873
10610.5103 9868
10610.6139 9859
10610.7175 9859
10610.8211 9865
10610.9248 9864
10611.0284 9851
10611.132 9823
10611.2356 9808
10611.3392 9787
10611.4428 9681
10611.5465 9380
10611.6501 8419
10611.7537 8510
10611.8574 9429
10611.961 9693
10612.0646 9770
10612.1683 9821
10612.2719 9834
10612.3755 9840
10612.4792 9837
10612.5828 9816
10612.6865 9772
10612.7901 9810
10612.8938 9856
10612.9974 9856
10613.1011 9855
10613.2047 9852
10613.3084 9865
10613.4121 9872
10613.5157 9874
10613.6194 9868
10613.723 9864
10613.8267 9863
10613.9304 9874
10614.0341 9847
10614.1377 9807
10614.2414 9834
10614.3451 9851
10614.4488 9863
10614.5525 9867
10614.6561 9865
10614.7598 9868
10614.8635 9870
10614.9672 9866
10615.0709 9864
10615.1746 9875
10615.2783 9871
10615.382 9871
10615.4857 9869
10615.5894 9868
10615.6931 9868
10615.7968 9871
10615.9005 9876
10616.0042 9876
10616.1079 9868
10616.2117 9862
10616.3154 9856
10616.4191 9851
10616.5228 9858
10616.6265 9722
10616.7303 8820
10616.834 9560
10616.9377 9834
10617.0414 9858
10617.1452 9853
10617.2489 9867
10617.3527 9849
10617.4564 9781
10617.5601 9830
10617.6639 9859
10617.7676 9852
10617.8714 9799
10617.9751 9794
10618.0789 9760
10618.1826 9814
10618.2864 9850
10618.3901 9825
10618.4939 9795
10618.5977 9858
10618.7014 9851
10618.8052 9856
10618.909 9866
10619.0127 9869
10619.1165 9855
10619.2203 9816
10619.3241 9764
10619.4278 9789
10619.5316 9835
10619.6354 9858
10619.7392 9866
10619.843 9868
10619.9468 9864
10620.0505 9860
10620.1543 9839
10620.2581 9789
10620.3619 9841
10620.4657 9863
10620.5695 9840
10620.6733 9774
10620.7771 9771
10620.8809 9748
10620.9848 9775
10621.0886 9838
10621.1924 9832
10621.2962 9804
10621.4 9759
10621.5038 9836
10621.6076 9857
10621.7115 9854
10621.8153 9849
10621.9191 9847
10622.0229 9845
10622.1268 9840
10622.2306 9848
10622.3344 9850
10622.4383 9829
10622.5421 9752
10622.646 9733
10622.7498 9823
10622.8537 9848
10622.9575 9854
10623.0613 9843
10623.1652 9830
10623.2691 9835
10623.3729 9860
10623.4768 9863
10623.5806 9855
10623.6845 9865
10623.7883 9855
10623.8922 9843
10623.9961 9860
10624.1 9841
10624.2038 9863
10624.3077 9828
10624.4116 9829
10624.5155 9847
10624.6193 9859
10624.7232 9860
10624.8271 9856
10624.931 9827
10625.0349 9719
10625.1388 9787
10625.2427 9831
10625.3465 9767
10625.4504 9805
10625.5543 9802
10625.6582 9734
10625.7621 9792
10625.866 9829
10625.97 9846
10626.0739 9851
10626.1778 9835
10626.2817 9816
10626.3856 9811
10626.4895 9805
10626.5934 9811
10626.6973 9802
10626.8013 9808
10626.9052 9792
10627.0091 9746
10627.1131 9699
10627.217 9618
10627.3209 9519
10627.4248 9099
10627.5288 7745
10627.6327 5577
10627.7367 6248
10627.8406 8521
10627.9446 9335
10628.0485 9596
10628.1524 9693
10628.2564 9744
10628.3604 9781
10628.4643 9813
10628.5683 9820
10628.6722 9826
10628.7762 9830
10628.8801 9839
10628.9841 9847
10629.0881 9851
10629.192 9856
10629.296 9847
10629.4 9836
10629.504 9843
10629.6079 9846
10629.7119 9859
10629.8159 9857
10629.9199 9839